Wavenumber	B4C	Si	SiB6	SiC
2699.163086	83997.71094	4896.422852	11705.20801	1171746.25
2696.943359	84296.19531	4797.300781	11682.68066	1169638.875
2694.723633	83852	4920.917969	11687.21191	1166987
2692.50293	83770.53125	4878.979492	11665.84766	1164378.375
2690.28125	83942.32031	4921.471191	11677.13086	1163963.25
2688.05957	83793.35938	4884.056641	11651.28027	1157295.25
2685.836914	83587.11719	4913.024414	11609.69629	1158665
2683.613281	83782.40625	4959.966797	11757.04004	1158658.75
2681.388672	83133.36719	4832.641602	11643.50586	1154389.875
2679.164063	83617.47656	4837.998535	11736.81152	1156372.625
2676.939453	83773.25	4836.61084	11688.50684	1153889.5
2674.712891	83832.33594	4841.962891	11652.58398	1151993
2672.486328	83395.10156	4845.065918	11677.3125	1145306.375
2670.259766	83015.35156	4834.696289	11554.97949	1144169.75
2668.032227	83208.13281	4896.152832	11505.65723	1139654.75
2665.803711	82919.51563	4882.408203	11584.25293	1141490.875
2663.574219	83376.875	4943.81543	11434.01074	1141316.125
2661.344727	82683.60156	4902.033691	11567.51953	1137061.25
2659.114258	83119.46094	4923.046387	11516.00488	1137192.625
2656.882813	83239.0625	4898.102051	11489.1709	1136537.125
2654.651367	82883.60156	4986.319336	11601.26172	1133224.625
2652.418945	83199.17969	4850.496094	11640.49316	1134234.75
2650.186523	83108.14844	4911.804688	11634.91699	1132011.75
2647.953125	82916.42969	4907.038574	11543.15723	1129368.125
2645.71875	82501.02344	4959.343262	11487.25684	1124945.5
2643.483398	83010.96094	4940.022461	11489.55762	1126467.75
2641.248047	82481.67969	4947.553223	11591.38574	1121503.75
2639.011719	82485.98438	4936.072754	11658.49707	1120678
2636.775391	82472.39844	4972.659668	11566.85742	1116107.375
2634.538086	82220.82031	5020.398926	11640.63965	1117486.875
2632.299805	82286.60938	4931.829102	11593.73828	1113630
2630.060547	81888.92188	4954.983887	11531.22949	1111734
2627.821289	82181.39063	4944.631836	11312.45898	1109139
2625.582031	82031.71875	4991.207031	11520.15527	1108712.75
2623.34082	82233.58594	5083.501953	11494.53809	1107850.5
2621.099609	82439.79688	4977.191406	11557.05371	1106449.875
2618.857422	81855.25781	4955.692383	11409.89063	1103233.375
2616.615234	81613.29688	5081.361816	11314.0918	1100100.125
2614.37207	81922.02344	4979.599609	11393.32031	1100578.25
2612.12793	81993.24219	4910.20752	11485.87207	1099554.25
2609.883789	82204.75781	5061.399414	11372.31055	1096121.375
2607.638672	81375.00781	4957.502441	11524.94336	1093039
2605.392578	81714.58594	5044.026367	11467.09375	1090568.375
2603.146484	81637.75	4935.741699	11425.96875	1089229.625
2600.899414	81291.70313	4987.730957	11365.95313	1087808.25
2598.651367	81500.86719	5065.272461	11391.61328	1085632.375
2596.40332	81301.82031	4940.394531	11425.04199	1083119.5
2594.154297	81152.90625	4994.560059	11479.57031	1082327.75
2591.904297	81074.07813	5008.687012	11428.49512	1079848.375
2589.654297	80722	4995.030273	11357.4502	1075983.75
2587.40332	81050.9375	5001.373047	11350.86328	1073536.125
2585.152344	80820.07031	5086.547852	11233.24512	1072102.625
2582.899414	80674.80469	4974.085938	11453.13867	1071273.625
2580.646484	81127.74219	4932.709961	11352.20215	1070354
2578.393555	80745.04688	5008.95459	11348.94824	1065958
2576.138672	80439.09375	4988.664551	11307.98731	1066294.625
2573.884766	80562.39063	5023.82373	11356.85742	1063451.125
2571.628906	80265.51563	5048.986328	11310.37305	1062922.375
2569.373047	79871.29688	5008.754883	11355.8877	1057559.125
2567.116211	80410.04688	5038.337891	11390.29785	1056976.875
2564.858398	80436.83594	4977.088867	11249.70606	1056247.5
2562.600586	80119.27344	5003.341309	11229.87402	1052828.125
2560.341797	80032.10938	5014.083008	11226.6543	1050284.875
2558.083008	79889.66406	5025.923828	11131.5957	1048192.375
2555.822266	79853.49219	5012.314941	11296.54688	1046855.438
2553.561523	80006.4375	4964.429688	11296.62598	1045881.813
2551.300781	79663.99219	5054.770508	11342.0332	1041936.938
2549.039063	79585.89063	5051.11084	11211.67773	1041479.063
2546.776367	79589.59375	5012.094238	11226.14258	1039513.125
2544.512695	79427.59375	5025.018066	11197.51758	1038888.188
2542.249023	79397.09375	5024.681641	11188.78613	1035408.813
2539.984375	79662.46875	5058.569336	11244.08887	1037332.063
2537.719727	79545.8125	5027.319336	11206.65137	1034009.5
2535.453125	79121.39063	5029.187988	11237.64258	1029411.063
2533.1875	79035.82813	5075.177734	11067.86231	1028480.563
2530.919922	79165.34375	5046.153809	11269.79395	1026804
2528.652344	78675.22656	5045.809082	11129.86523	1023098.75
2526.383789	79033.98438	5090.651367	11318.43652	1026360.688
2524.114258	79124.80469	5103.514648	11200.60645	1023423.25
2521.844727	78639.50781	5027.150879	11175.36621	1018773.5
2519.574219	78551.98438	5067.553223	11172.16113	1018153.188
2517.303711	78414.97656	4949.410156	11099.60547	1012442.938
2515.032227	78399.08594	5102.06543	11094.2207	1012186.75
2512.759766	78283.08594	5097.30127	11098.74023	1011476.188
2510.486328	78419.01563	5044.144043	11247.34082	1010166.5
2508.212891	78740.6875	5122.967285	11081.37988	1010457.313
2505.938477	78500.45313	5169.865723	11107.88086	1007121.5
2503.664063	78068.03906	5102.445313	11004.69238	1005730.375
2501.387695	78479.59375	5167.999023	11217.96289	1008275.188
2499.112305	77916.71875	5158.828125	11099.42285	1002273.75
2496.834961	78135.92188	5169.42627	11038.0459	1002378.188
2494.557617	77913.73438	5127.328613	11149.03711	999721.875
2492.279297	77938.57031	5181.824219	11200.70606	998773.375
2490	77816.375	5088.184082	11089.98242	997011.25
2487.720703	77932.23438	5190.915527	11092.28418	994489
2485.44043	77303.5625	5220.125977	10956.43652	990442.9375
2483.160156	78100.16406	5116.688965	11085.91992	990439.375
2480.87793	77979.13281	5152.478516	11002.74707	989173.375
2478.59668	77716.85156	5136.758301	11148.57324	987276.9375
2476.313477	77478.79688	5146.236328	11077.47461	984434.25
2474.030273	77305.47656	5227.96875	11125.75293	983746.6875
2471.746094	77385.07813	5171.740723	11114.89746	982257.0625
2469.460938	77292.84375	5209.648926	11027.45313	980742
2467.175781	77572.57031	5181.899414	11010.06738	978980.4375
2464.889648	77005.70313	5236.186035	10941.29199	977376.1875
2462.602539	77048.10156	5206.257324	10964.38965	973564.375
2460.31543	77105.76563	5179.624512	11090.21094	970823.5625
2458.027344	76998.40625	5236.048828	11053.15527	972672.1875
2455.739258	77096.45313	5274.962402	11083.84375	968405.9375
2453.449219	76663.71875	5206.833496	10971.46094	965531.125
2451.15918	76390.61719	5261.016602	11092.76367	962412.1875
2448.869141	76485.46094	5189.655762	11100.49219	963703.0625
2446.577148	76521.32031	5269.997559	10999.1084	957655.625
2444.285156	76886.57031	5144.134766	10992.67773	961167.75
2441.993164	76624.58594	5212.447754	11012.41992	958023.8125
2439.699219	76441.24219	5144.450684	10862.08887	953915.75
2437.405273	75997.52344	5231.250488	11032.25	950667.625
2435.111328	75596.54688	5240.643066	10956.08398	948762.5
2432.81543	76165.17188	5227.15625	11046.60742	946953.0625
2430.519531	76422.04688	5101.519531	10990.0791	946156.1875
2428.223633	75942.89063	5175.166992	10927.05078	944118.6875
2425.925781	75367.14844	5271.625	10997.91211	941318.3125
2423.62793	75734.97656	5264.67041	10922.94824	941433
2421.329102	75754.54688	5192.460449	10930.68555	939164.5
2419.030273	75697.98438	5220.326172	11018.87891	939556.8125
2416.730469	75891.45313	5211.216797	10991.79785	935879
2414.429688	75369.76563	5212.979004	10886.49023	933147.5625
2412.128906	75336.14844	5261.455566	10860.54688	931927.6875
2409.827148	75368.79688	5295.78418	10938.87988	929412.75
2407.524414	75189.69531	5260.602539	10972.65137	929341
2405.220703	75233.20313	5220.013184	10878.31934	927231.8125
2402.917969	74800.3125	5228.278809	10924.02246	923142.3125
2400.613281	74991.42969	5217.012207	10949.08691	922384.375
2398.306641	74878.76563	5281.668457	10971.9668	920710.375
2396.001953	74568.83594	5319.181641	11029.52637	917704.75
2393.695313	74540.89063	5235.274902	10885.44922	917832.125
2391.388672	74334.15625	5139.496094	10931.0791	915290.4375
2389.080078	74390.77344	5231.180176	10854.27344	912887.75
2386.771484	74202.60156	5210.182129	10947.53418	906764.1875
2384.462891	74334.98438	5226.005859	10960.62402	907743
2382.152344	74346.07031	5214.76123	10935.82422	903711
2379.841797	74167.78906	5164.568848	10861.26465	904225.6875
2377.53125	74067.47656	5244.212402	10929.53125	902858.9375
2375.21875	74263.52344	5207.016602	10952.33984	901054.875
2372.90625	74361.07031	5289.844238	10894.05273	901504.75
2370.59375	73716.0625	5218.070313	11013.04395	898995.125
2368.279297	74155.125	5220.890137	10951.5293	895098.4375
2365.964844	73688.75781	5210.746094	10960.25879	891543.125
2363.650391	73396.5	5217.884766	10924.70801	888406.5
2361.333984	73643.09375	5193.711914	11038.15137	889155.75
2359.017578	73169.69531	5191.137207	10810.49609	888214.4375
2356.701172	73237.09375	5174.537598	10947.64063	883895.5
2354.382813	73521.25	5250.70752	11122.45606	883278.5625
2352.064453	73900.11719	5245.960449	10956.43262	884513.25
2349.744141	73510.16406	5205.641602	10999.62891	880937.25
2347.425781	73500.84375	5311.910645	10916.71387	878085.25
2345.103516	73575.55469	5175.708496	10860.77832	879302.875
2342.783203	73617.89844	5245.303711	10837.18555	875769.9375
2340.460938	73078.78125	5281.478516	10892.20606	872293.875
2338.138672	72831.67188	5163.700684	10998.86231	870735.75
2335.816406	73158.26563	5273.054199	10790.15527	868255.125
2333.492188	73008.08594	5273.686035	10943.03711	864891.5
2331.167969	73270.96875	5419.51123	11116.2627	864214.125
2328.841797	73414.35156	5541.597656	11159.29102	861913.5625
2326.515625	73030.95313	5571.171875	11098.03027	861618.875
2324.189453	72682.15625	5404.07959	11163.60254	859920.875
2321.863281	72946.94531	5306.911133	10795.13867	859907.0625
2319.535156	72915.17188	5266.717773	10889.75391	855365.5
2317.207031	73044.45313	5321.028809	10901.64453	855458.0625
2314.876953	72527.50781	5230.406738	10873.81348	853533.6875
2312.546875	73021.63281	5249.285645	10926.47266	852571.8125
2310.216797	72576.85156	5277.807617	10860.03125	848177.6875
2307.884766	72371.45313	5291.29834	10804.35059	845570.5
2305.552734	72350.57031	5287.627441	10744.41309	844263
2303.220703	72236.44531	5238.942383	10877.42773	843895
2300.886719	72809.19531	5312.43457	10715.71094	842281.0625
2298.552734	72271.88281	5286.26416	10779.03027	839684.625
2296.21875	72307.77344	5314.722168	10726.65918	838329.625
2293.882813	71963.59375	5265.012695	10686.09375	835581.4375
2291.546875	72241.40625	5313.794434	10582.40723	834326.6875
2289.210938	72071.82813	5242.713867	10799.75391	831469.8125
2286.873047	72147.28125	5239.060547	10675.76953	827687.125
2284.535156	72074.04688	5310.26123	10658.78516	829326.8125
2282.197266	72234.95313	5299.106445	10731.60449	824811.3125
2279.857422	71980.04688	5334.97998	10595.98731	824577.3125
2277.517578	71865.23438	5390.063965	10731.81445	822364.6875
2275.177734	72209.74219	5265.67627	10699.87598	819398.1875
2272.835938	71777.78906	5342.102539	10632.71875	818521.8125
2270.494141	71725.02344	5183.640137	10582.67773	815125.5625
2268.150391	72135.41406	5331.544434	10563.61133	816155.625
2265.808594	72152.96875	5295.864258	10664.04102	813710.25
2263.462891	72049.98438	5332.728516	10536.17481	810361.8125
2261.119141	71850.02344	5406.889648	10472.35352	807696.5625
2258.773438	71869.75	5389.336914	10693.16504	807718.75
2256.427734	71876.67188	5378.187988	10530.2334	806128.6875
2254.080078	71656.67188	5379.828125	10485.64063	803588.0625
2251.732422	71842.55469	5407.026855	10523.07715	802782.6875
2249.384766	72174.17188	5368.198242	10617.98242	803081.6875
2247.035156	71989.375	5345.356934	10746.8916	798310.875
2244.6875	71728.07031	5442.769531	10434.14063	794844
2242.335938	71861.55469	5431.620605	10520.47559	794408.6875
2239.986328	71897.10938	5298.178711	10636.53613	793710.8125
2237.634766	72148.46094	5263.687012	10628.1416	794054.0625
2235.28125	72028.72656	5354.631348	10476.26856	790296.6875
2232.929688	72192.75	5382.831543	10550.79883	789497.25
2230.576172	71980.64844	5268.67627	10619.97363	787383.1875
2228.220703	72049	5326.618164	10487.3457	786535
2225.865234	72175.6875	5386.648926	10622.31543	785932.4375
2223.509766	72335.20313	5321.409668	10481.27051	784718.8125
2221.154297	72569.9375	5497.055664	10701.03906	783184.3125
2218.796875	72353.74219	5430.760254	10655.51172	780344.9375
2216.439453	72570.29688	5476.903809	10566.53418	780780.4375
2214.082031	72347.85156	5433.973145	10587.85254	776353.125
2211.722656	72190.17188	5434.517578	10488.3457	775203.9375
2209.363281	72272.00781	5541.007324	10588.07129	773518.25
2207.001953	72494.65625	5474.791992	10554.28613	771744.4375
2204.640625	72352.92188	5465.79248	10414.63672	771860.5
2202.279297	72535.17188	5381.640625	10585.21289	769199.9375
2199.916016	72328.94531	5454.15625	10601.19043	767891.0625
2197.552734	72538.58594	5466.327148	10679.57422	767476.8125
2195.189453	72774.53906	5532.429199	10584.46387	765273.25
2192.824219	72769.28125	5361.652832	10596.19434	761856.0625
2190.458984	72558.96094	5591.582031	10630.11426	761841.0625
2188.09375	72363.54688	5443.077148	10651.33203	759708.375
2185.726563	72530.57031	5493.260254	10506.68555	758354.3125
2183.359375	72855.89844	5453.646484	10633.53125	759231.375
2180.992188	72372.32031	5538.636719	10641.00098	755937.625
2178.623047	72682.71875	5510.641602	10602.02539	753706.375
2176.253906	72805.10156	5504.820313	10631.65527	751993.375
2173.884766	72502.3125	5554.90918	10635.95117	749718
2171.513672	72444.33594	5556.458984	10763.62305	747746.4375
2169.142578	72483.375	5503.186035	10627.66211	746152.375
2166.769531	72793.24219	5540.58252	10751.04395	747680.8125
2164.396484	72165.20313	5505.255859	10763.72363	742558.875
2162.023438	72175.82031	5554.215332	10711.08887	743123.5625
2159.650391	72272.77344	5554.706543	10795.37402	739741.125
2157.275391	72361.24219	5560.460449	10729.07324	739669.125
2154.898438	72224.42969	5616.726074	10703.85254	736592.5625
2152.523438	72067.70313	5555.12207	10744.92676	736636.125
2150.146484	72126.67188	5608.199707	10601.91406	733486.3125
2147.767578	72070.99219	5626.546387	10743.93262	731257.1875
2145.390625	71943.85156	5580.759277	10704.01563	728291.4375
2143.011719	71508.875	5643.23877	10816.49512	729478.125
2140.630859	71712.875	5570.157227	10798.63867	726903.125
2138.25	71460.94531	5606.345215	10746.13281	724354.6875
2135.869141	71524.13281	5552.214355	10737.75488	722912.1875
2133.488281	71262.9375	5617.775879	10772.41406	721475.6875
2131.105469	71147.74219	5650.768555	10718.90918	719927.6875
2128.722656	70836.4375	5563.100586	10828.03223	718288.125
2126.337891	70835.72656	5641.184082	10728.39551	714758.625
2123.953125	70927.26563	5705.591797	10714.78516	713904.5625
2121.568359	70702.21875	5632.65625	10878.31152	711714.5
2119.183594	70345.26563	5644.63623	10794.45996	711136.1875
2116.796875	70216.86719	5570.711914	10805.97852	708645.3125
2114.408203	70244.5625	5642.392578	10937.91602	707063.75
2112.021484	69866.04688	5627.137695	10846.78809	706312.125
2109.632813	69574.60156	5688.29248	10799.66797	704790.5625
2107.242188	69813.78125	5625.948242	10940.9043	704225.0625
2104.851563	69461.84375	5688.112305	10837.29883	701451.75
2102.460938	69430.07813	5697.955566	10917.79004	700231.75
2100.070313	68889.22656	5648.205078	10867.5625	698073.625
2097.677734	69244.28906	5629.834961	10852.89453	694587.375
2095.285156	68724.6875	5632.370605	10782.86328	693966.6875
2092.890625	68385.02344	5664.149414	10777.62598	692863.75
2090.496094	68395.33594	5635.347168	10751.50781	689041.4375
2088.101563	68332.5625	5622.21875	10818.30469	691761.875
2085.707031	68430.51563	5749.977051	10736.87988	688778.8125
2083.310547	68340.63281	5683.615723	10959.0791	688100.8125
2080.912109	68323.78906	5642.323242	10845.32813	687483.625
2078.515625	67880.52344	5712.616699	10825.47656	685247.5625
2076.117188	67576.13281	5769.317383	10848.37012	684039.3125
2073.716797	67599.10156	5739.496094	10897.29883	682882.8125
2071.316406	67262.65625	5744.068359	10718.06543	679487.1875
2068.916016	67213.82813	5734.057129	10815.94629	681407.75
2066.515625	66735.04688	5710.516602	10903.35742	676448.5625
2064.113281	66556.28125	5677.62207	10698.25586	676332.9375
2061.710938	66653.34375	5724.864746	10806.45703	675919.625
2059.306641	66559.99219	5652.455566	10818.89746	675207
2056.902344	66299.25781	5841.102539	10776.21582	671003.75
2054.498047	66201.88281	5712.5625	10834.39648	670014.1875
2052.091797	65830.1875	5761.81543	10831.22461	668188.4375
2049.685547	66152.73438	5841.168945	10771.94922	668193.3125
2047.279297	65551.71094	5909.049805	10608.84082	666182.0625
2044.871094	65172.20313	5816.980469	10661.80469	664685.875
2042.462891	65540.29688	5844.342285	10714.73535	662991.125
2040.054688	65624.86719	5741.966309	10765.55859	660940.375
2037.644531	65317.23047	5867.891602	10818.42578	659678.0625
2035.234375	64941.30859	5770.75293	10694.94727	658124
2032.822266	65094.38672	5927.700195	10846.29981	658433.9375
2030.410156	65078.41016	5771.516113	10818.24219	656335.75
2027.998047	64889.38281	5851.687012	10820.25098	653813.8125
2025.585938	64699.42578	5902.803711	10565.34863	653260.5
2023.171875	64612.09375	5760.225098	10708.27148	650220.9375
2020.755859	64557.93359	5880.70459	10783.81348	650705.1875
2018.341797	64695.27734	5762.02002	10877.93945	646645.375
2015.923828	64415.54297	5802.75293	10618.13965	645581.25
2013.507813	64210.4375	5788.63623	10667.77734	644642.8125
2011.089844	64530.76953	5892.416992	10544.68945	642617
2008.671875	64055.91797	5810.048828	10721.47266	641561.9375
2006.253906	64007.12891	5855.883789	10826.83984	639684.8125
2003.833984	64080.28125	5876.894531	10552.96484	636358.0625
2001.412109	64038.73047	5839.015625	10721.32324	635664.9375
1998.992188	63695.67969	5953.983887	10625.24023	633535.875
1996.570313	63687.28125	5918.167969	10705.73145	631959.1875
1994.146484	63926.55078	5914.364258	10675.75293	632045.8125
1991.724609	63765.38672	5958.02002	10584.92188	629832.75
1989.300781	63901.33984	5873.756836	10665.34961	629260.8125
1986.875	63344.32813	5910.179199	10744.69727	627645.625
1984.449219	63459.69141	5928.025391	10663.19922	626218.9375
1982.023438	63106.12109	5804.68457	10558.04688	622482.6875
1979.597656	62994.83594	6047.12793	10716.67285	620459.625
1977.169922	62971.14453	6025.780273	10588.90723	619242
1974.742188	63015.41016	5983.853027	10706.24609	617484.5
1972.3125	62678.81641	5980.032715	10640.31055	615592.0625
1969.882813	62648.01172	6010.169434	10709.20215	613981.5625
1967.453125	62324.05078	6034.115723	10641.24414	611433.8125
1965.021484	62724.22266	5994.288574	10623.71191	612196.6875
1962.589844	62500.13281	5929.811035	10722.35645	610347.8125
1960.15625	62552.62891	5977.395508	10699.66992	607087.8125
1957.722656	62399.59375	5996.182617	10699.59766	605566
1955.289063	62212.75	5996.469238	10697.4707	604655.125
1952.855469	62078.375	6146.67334	10731.28125	602996.1875
1950.419922	61950.22656	5986.773438	10640.86231	601232.375
1947.982422	61866.27344	5974.745117	10704.42773	600421.8125
1945.546875	61803.90625	6015.04541	10574.05664	597952.8125
1943.109375	61767.20703	6123.013184	10606.83203	596307.625
1940.669922	61623.89063	6091.471191	10668.2959	595498
1938.232422	61460.14844	6067.122559	10503.19629	593455.6875
1935.791016	61298.54297	6116.566895	10718.35547	592726.0625
1933.351563	61622.58984	6089.150391	10682.40918	591698.75
1930.910156	61651.49609	6048.435059	10582.98926	589556.6875
1928.46875	61213.52734	5988.291016	10580.88672	589523.8125
1926.025391	61408.32422	6171.776855	10713.88379	588056.9375
1923.582031	61166.09766	6156.651367	10703.55566	584451.375
1921.138672	61107.10156	6153.808594	10707.55176	584366.5625
1918.693359	60888.60547	6090.632813	10582.69824	583439.125
1916.248047	61142.52734	6162.4375	10804.4707	584028.1875
1913.800781	61063.125	6175.944824	10726.6709	582438
1911.355469	61411.83984	6207.833984	10727.58398	581552.5625
1908.90625	61091.34375	6169.227051	10745.8584	580715.5625
1906.458984	60309.50391	6246.025391	10635.46582	577978.75
