Wavenumber	B4C	Si	SiB6	SiC	SiBC
2699.163086	83997.71094	4896.422852	11705.20801	1171746.25	2620.398859
2696.943359	84296.19531	4797.300781	11682.68066	1169638.875	2608.925203
2694.723633	83852	4920.917969	11687.21191	1166987	2615.796336
2692.50293	83770.53125	4878.979492	11665.84766	1164378.375	2600.659118
2690.28125	83942.32031	4921.471191	11677.13086	1163963.25	2606.547994
2688.05957	83793.35938	4884.056641	11651.28027	1157295.25	2608.158799
2685.836914	83587.11719	4913.024414	11609.69629	1158665	2607.969713
2683.613281	83782.40625	4959.966797	11757.04004	1158658.75	2614.224036
2681.388672	83133.36719	4832.641602	11643.50586	1154389.875	2611.20668
2679.164063	83617.47656	4837.998535	11736.81152	1156372.625	2604.34972
2676.939453	83773.25	4836.61084	11688.50684	1153889.5	2608.028374
2674.712891	83832.33594	4841.962891	11652.58398	1151993	2601.083981
2672.486328	83395.10156	4845.065918	11677.3125	1145306.375	2600.108181
2670.259766	83015.35156	4834.696289	11554.97949	1144169.75	2612.683336
2668.032227	83208.13281	4896.152832	11505.65723	1139654.75	2601.385854
2665.803711	82919.51563	4882.408203	11584.25293	1141490.875	2607.665784
2663.574219	83376.875	4943.81543	11434.01074	1141316.125	2610.451302
2661.344727	82683.60156	4902.033691	11567.51953	1137061.25	2608.957534
2659.114258	83119.46094	4923.046387	11516.00488	1137192.625	2594.441507
2656.882813	83239.0625	4898.102051	11489.1709	1136537.125	2610.587305
2654.651367	82883.60156	4986.319336	11601.26172	1133224.625	2608.50861
2652.418945	83199.17969	4850.496094	11640.49316	1134234.75	2604.843395
2650.186523	83108.14844	4911.804688	11634.91699	1132011.75	2616.162168
2647.953125	82916.42969	4907.038574	11543.15723	1129368.125	2609.056088
2645.71875	82501.02344	4959.343262	11487.25684	1124945.5	2608.763273
2643.483398	83010.96094	4940.022461	11489.55762	1126467.75	2610.606374
2641.248047	82481.67969	4947.553223	11591.38574	1121503.75	2597.181841
2639.011719	82485.98438	4936.072754	11658.49707	1120678	2603.743266
2636.775391	82472.39844	4972.659668	11566.85742	1116107.375	2599.228048
2634.538086	82220.82031	5020.398926	11640.63965	1117486.875	2603.901891
2632.299805	82286.60938	4931.829102	11593.73828	1113630	2593.097427
2630.060547	81888.92188	4954.983887	11531.22949	1111734	2604.047741
2627.821289	82181.39063	4944.631836	11312.45898	1109139	2602.32996
2625.582031	82031.71875	4991.207031	11520.15527	1108712.75	2585.230185
2623.34082	82233.58594	5083.501953	11494.53809	1107850.5	2601.443515
2621.099609	82439.79688	4977.191406	11557.05371	1106449.875	2604.229775
2618.857422	81855.25781	4955.692383	11409.89063	1103233.375	2603.37289
2616.615234	81613.29688	5081.361816	11314.0918	1100100.125	2596.973951
2614.37207	81922.02344	4979.599609	11393.32031	1100578.25	2601.541363
2612.12793	81993.24219	4910.20752	11485.87207	1099554.25	2590.993038
2609.883789	82204.75781	5061.399414	11372.31055	1096121.375	2592.083867
2607.638672	81375.00781	4957.502441	11524.94336	1093039	2597.14359
2605.392578	81714.58594	5044.026367	11467.09375	1090568.375	2591.424737
2603.146484	81637.75	4935.741699	11425.96875	1089229.625	2584.551419
2600.899414	81291.70313	4987.730957	11365.95313	1087808.25	2588.144277
2598.651367	81500.86719	5065.272461	11391.61328	1085632.375	2590.561255
2596.40332	81301.82031	4940.394531	11425.04199	1083119.5	2582.662857
2594.154297	81152.90625	4994.560059	11479.57031	1082327.75	2586.523993
2591.904297	81074.07813	5008.687012	11428.49512	1079848.375	2580.260416
2589.654297	80722	4995.030273	11357.4502	1075983.75	2576.46777
2587.40332	81050.9375	5001.373047	11350.86328	1073536.125	2578.744992
2585.152344	80820.07031	5086.547852	11233.24512	1072102.625	2574.272957
2582.899414	80674.80469	4974.085938	11453.13867	1071273.625	2572.458734
2580.646484	81127.74219	4932.709961	11352.20215	1070354	2581.489646
2578.393555	80745.04688	5008.95459	11348.94824	1065958	2573.774537
2576.138672	80439.09375	4988.664551	11307.98731	1066294.625	2570.538465
2573.884766	80562.39063	5023.82373	11356.85742	1063451.125	2574.719271
2571.628906	80265.51563	5048.986328	11310.37305	1062922.375	2575.229441
2569.373047	79871.29688	5008.754883	11355.8877	1057559.125	2568.776961
2567.116211	80410.04688	5038.337891	11390.29785	1056976.875	2561.468627
2564.858398	80436.83594	4977.088867	11249.70606	1056247.5	2559.469003
2562.600586	80119.27344	5003.341309	11229.87402	1052828.125	2554.140008
2560.341797	80032.10938	5014.083008	11226.6543	1050284.875	2570.130103
2558.083008	79889.66406	5025.923828	11131.5957	1048192.375	2554.682481
2555.822266	79853.49219	5012.314941	11296.54688	1046855.438	2555.021899
2553.561523	80006.4375	4964.429688	11296.62598	1045881.813	2554.713348
2551.300781	79663.99219	5054.770508	11342.0332	1041936.938	2548.905518
2549.039063	79585.89063	5051.11084	11211.67773	1041479.063	2552.704896
2546.776367	79589.59375	5012.094238	11226.14258	1039513.125	2543.224744
2544.512695	79427.59375	5025.018066	11197.51758	1038888.188	2553.60645
2542.249023	79397.09375	5024.681641	11188.78613	1035408.813	2545.495528
2539.984375	79662.46875	5058.569336	11244.08887	1037332.063	2537.585642
2537.719727	79545.8125	5027.319336	11206.65137	1034009.5	2541.974959
2535.453125	79121.39063	5029.187988	11237.64258	1029411.063	2541.692838
2533.1875	79035.82813	5075.177734	11067.86231	1028480.563	2531.924227
2530.919922	79165.34375	5046.153809	11269.79395	1026804	2531.645686
2528.652344	78675.22656	5045.809082	11129.86523	1023098.75	2533.036612
2526.383789	79033.98438	5090.651367	11318.43652	1026360.688	2535.898075
2524.114258	79124.80469	5103.514648	11200.60645	1023423.25	2536.542323
2521.844727	78639.50781	5027.150879	11175.36621	1018773.5	2527.883779
2519.574219	78551.98438	5067.553223	11172.16113	1018153.188	2531.12056
2517.303711	78414.97656	4949.410156	11099.60547	1012442.938	2530.043357
2515.032227	78399.08594	5102.06543	11094.2207	1012186.75	2529.643692
2512.759766	78283.08594	5097.30127	11098.74023	1011476.188	2530.599364
2510.486328	78419.01563	5044.144043	11247.34082	1010166.5	2523.805011
2508.212891	78740.6875	5122.967285	11081.37988	1010457.313	2530.960624
2505.938477	78500.45313	5169.865723	11107.88086	1007121.5	2519.899756
2503.664063	78068.03906	5102.445313	11004.69238	1005730.375	2529.562132
2501.387695	78479.59375	5167.999023	11217.96289	1008275.188	2520.1826
2499.112305	77916.71875	5158.828125	11099.42285	1002273.75	2529.424881
2496.834961	78135.92188	5169.42627	11038.0459	1002378.188	2534.424094
2494.557617	77913.73438	5127.328613	11149.03711	999721.875	2528.59443
2492.279297	77938.57031	5181.824219	11200.70606	998773.375	2518.202434
2490	77816.375	5088.184082	11089.98242	997011.25	2512.391474
2487.720703	77932.23438	5190.915527	11092.28418	994489	2525.030473
2485.44043	77303.5625	5220.125977	10956.43652	990442.9375	2513.357966
2483.160156	78100.16406	5116.688965	11085.91992	990439.375	2517.079798
2480.87793	77979.13281	5152.478516	11002.74707	989173.375	2516.177921
2478.59668	77716.85156	5136.758301	11148.57324	987276.9375	2524.838641
2476.313477	77478.79688	5146.236328	11077.47461	984434.25	2520.641299
2474.030273	77305.47656	5227.96875	11125.75293	983746.6875	2514.4922
2471.746094	77385.07813	5171.740723	11114.89746	982257.0625	2517.517748
2469.460938	77292.84375	5209.648926	11027.45313	980742	2517.081395
2467.175781	77572.57031	5181.899414	11010.06738	978980.4375	2516.872315
2464.889648	77005.70313	5236.186035	10941.29199	977376.1875	2511.803342
2462.602539	77048.10156	5206.257324	10964.38965	973564.375	2510.228652
2460.31543	77105.76563	5179.624512	11090.21094	970823.5625	2509.529731
2458.027344	76998.40625	5236.048828	11053.15527	972672.1875	2506.945248
2455.739258	77096.45313	5274.962402	11083.84375	968405.9375	2498.968966
2453.449219	76663.71875	5206.833496	10971.46094	965531.125	2501.648886
2451.15918	76390.61719	5261.016602	11092.76367	962412.1875	2505.001763
2448.869141	76485.46094	5189.655762	11100.49219	963703.0625	2500.268035
2446.577148	76521.32031	5269.997559	10999.1084	957655.625	2499.756957
2444.285156	76886.57031	5144.134766	10992.67773	961167.75	2499.930679
2441.993164	76624.58594	5212.447754	11012.41992	958023.8125	2485.483433
2439.699219	76441.24219	5144.450684	10862.08887	953915.75	2482.625467
2437.405273	75997.52344	5231.250488	11032.25	950667.625	2489.031495
2435.111328	75596.54688	5240.643066	10956.08398	948762.5	2489.718068
2432.81543	76165.17188	5227.15625	11046.60742	946953.0625	2470.675701
2430.519531	76422.04688	5101.519531	10990.0791	946156.1875	2481.55461
2428.223633	75942.89063	5175.166992	10927.05078	944118.6875	2466.837245
2425.925781	75367.14844	5271.625	10997.91211	941318.3125	2468.713827
2423.62793	75734.97656	5264.67041	10922.94824	941433	2471.990336
2421.329102	75754.54688	5192.460449	10930.68555	939164.5	2468.344066
2419.030273	75697.98438	5220.326172	11018.87891	939556.8125	2460.335578
2416.730469	75891.45313	5211.216797	10991.79785	935879	2459.73748
2414.429688	75369.76563	5212.979004	10886.49023	933147.5625	2457.405344
2412.128906	75336.14844	5261.455566	10860.54688	931927.6875	2446.53297
2409.827148	75368.79688	5295.78418	10938.87988	929412.75	2441.089764
2407.524414	75189.69531	5260.602539	10972.65137	929341	2445.550741
2405.220703	75233.20313	5220.013184	10878.31934	927231.8125	2435.852345
2402.917969	74800.3125	5228.278809	10924.02246	923142.3125	2435.95722
2400.613281	74991.42969	5217.012207	10949.08691	922384.375	2429.721335
2398.306641	74878.76563	5281.668457	10971.9668	920710.375	2413.025593
2396.001953	74568.83594	5319.181641	11029.52637	917704.75	2413.184536
2393.695313	74540.89063	5235.274902	10885.44922	917832.125	2406.525949
2391.388672	74334.15625	5139.496094	10931.0791	915290.4375	2403.408103
2389.080078	74390.77344	5231.180176	10854.27344	912887.75	2394.947258
2386.771484	74202.60156	5210.182129	10947.53418	906764.1875	2390.410227
2384.462891	74334.98438	5226.005859	10960.62402	907743	2377.2276
2382.152344	74346.07031	5214.76123	10935.82422	903711	2383.378865
2379.841797	74167.78906	5164.568848	10861.26465	904225.6875	2375.75615
2377.53125	74067.47656	5244.212402	10929.53125	902858.9375	2369.373258
2375.21875	74263.52344	5207.016602	10952.33984	901054.875	2365.931951
2372.90625	74361.07031	5289.844238	10894.05273	901504.75	2363.859029
2370.59375	73716.0625	5218.070313	11013.04395	898995.125	2358.57039
2368.279297	74155.125	5220.890137	10951.5293	895098.4375	2354.416806
2365.964844	73688.75781	5210.746094	10960.25879	891543.125	2350.034409
2363.650391	73396.5	5217.884766	10924.70801	888406.5	2347.372594
2361.333984	73643.09375	5193.711914	11038.15137	889155.75	2335.602506
2359.017578	73169.69531	5191.137207	10810.49609	888214.4375	2334.739234
2356.701172	73237.09375	5174.537598	10947.64063	883895.5	2328.314067
2354.382813	73521.25	5250.70752	11122.45606	883278.5625	2330.38225
2352.064453	73900.11719	5245.960449	10956.43262	884513.25	2323.696854
2349.744141	73510.16406	5205.641602	10999.62891	880937.25	2324.086649
2347.425781	73500.84375	5311.910645	10916.71387	878085.25	2317.515519
2345.103516	73575.55469	5175.708496	10860.77832	879302.875	2307.833818
2342.783203	73617.89844	5245.303711	10837.18555	875769.9375	2310.444324
2340.460938	73078.78125	5281.478516	10892.20606	872293.875	2306.051172
2338.138672	72831.67188	5163.700684	10998.86231	870735.75	2304.111705
2335.816406	73158.26563	5273.054199	10790.15527	868255.125	2299.502505
2333.492188	73008.08594	5273.686035	10943.03711	864891.5	2304.291383
2331.167969	73270.96875	5419.51123	11116.2627	864214.125	2306.302692
2328.841797	73414.35156	5541.597656	11159.29102	861913.5625	2315.603286
2326.515625	73030.95313	5571.171875	11098.03027	861618.875	2340.075531
2324.189453	72682.15625	5404.07959	11163.60254	859920.875	2334.170586
2321.863281	72946.94531	5306.911133	10795.13867	859907.0625	2301.825513
2319.535156	72915.17188	5266.717773	10889.75391	855365.5	2283.587794
2317.207031	73044.45313	5321.028809	10901.64453	855458.0625	2285.626578
2314.876953	72527.50781	5230.406738	10873.81348	853533.6875	2277.042889
2312.546875	73021.63281	5249.285645	10926.47266	852571.8125	2283.215789
2310.216797	72576.85156	5277.807617	10860.03125	848177.6875	2279.304229
2307.884766	72371.45313	5291.29834	10804.35059	845570.5	2279.720972
2305.552734	72350.57031	5287.627441	10744.41309	844263	2273.57705
2303.220703	72236.44531	5238.942383	10877.42773	843895	2276.696927
2300.886719	72809.19531	5312.43457	10715.71094	842281.0625	2277.82023
2298.552734	72271.88281	5286.26416	10779.03027	839684.625	2272.011432
2296.21875	72307.77344	5314.722168	10726.65918	838329.625	2272.885483
2293.882813	71963.59375	5265.012695	10686.09375	835581.4375	2269.268269
2291.546875	72241.40625	5313.794434	10582.40723	834326.6875	2264.797287
2289.210938	72071.82813	5242.713867	10799.75391	831469.8125	2270.175323
2286.873047	72147.28125	5239.060547	10675.76953	827687.125	2267.99627
2284.535156	72074.04688	5310.26123	10658.78516	829326.8125	2266.325222
2282.197266	72234.95313	5299.106445	10731.60449	824811.3125	2258.219002
2279.857422	71980.04688	5334.97998	10595.98731	824577.3125	2258.01873
2277.517578	71865.23438	5390.063965	10731.81445	822364.6875	2259.827381
2275.177734	72209.74219	5265.67627	10699.87598	819398.1875	2261.663118
2272.835938	71777.78906	5342.102539	10632.71875	818521.8125	2255.275381
2270.494141	71725.02344	5183.640137	10582.67773	815125.5625	2260.648197
2268.150391	72135.41406	5331.544434	10563.61133	816155.625	2262.401938
2265.808594	72152.96875	5295.864258	10664.04102	813710.25	2261.194065
2263.462891	72049.98438	5332.728516	10536.17481	810361.8125	2258.091544
2261.119141	71850.02344	5406.889648	10472.35352	807696.5625	2258.305587
2258.773438	71869.75	5389.336914	10693.16504	807718.75	2256.382305
2256.427734	71876.67188	5378.187988	10530.2334	806128.6875	2271.313899
2254.080078	71656.67188	5379.828125	10485.64063	803588.0625	2268.102972
2251.732422	71842.55469	5407.026855	10523.07715	802782.6875	2265.173786
2249.384766	72174.17188	5368.198242	10617.98242	803081.6875	2262.195449
2247.035156	71989.375	5345.356934	10746.8916	798310.875	2271.168328
2244.6875	71728.07031	5442.769531	10434.14063	794844	2269.573395
2242.335938	71861.55469	5431.620605	10520.47559	794408.6875	2270.537069
2239.986328	71897.10938	5298.178711	10636.53613	793710.8125	2269.263376
2237.634766	72148.46094	5263.687012	10628.1416	794054.0625	2275.080855
2235.28125	72028.72656	5354.631348	10476.26856	790296.6875	2279.16033
2232.929688	72192.75	5382.831543	10550.79883	789497.25	2278.315838
2230.576172	71980.64844	5268.67627	10619.97363	787383.1875	2284.12114
2228.220703	72049	5326.618164	10487.3457	786535	2289.255659
2225.865234	72175.6875	5386.648926	10622.31543	785932.4375	2296.364727
2223.509766	72335.20313	5321.409668	10481.27051	784718.8125	2302.694238
2221.154297	72569.9375	5497.055664	10701.03906	783184.3125	2307.652865
2218.796875	72353.74219	5430.760254	10655.51172	780344.9375	2314.754051
2216.439453	72570.29688	5476.903809	10566.53418	780780.4375	2315.45273
2214.082031	72347.85156	5433.973145	10587.85254	776353.125	2325.744665
2211.722656	72190.17188	5434.517578	10488.3457	775203.9375	2316.99779
2209.363281	72272.00781	5541.007324	10588.07129	773518.25	2331.01873
2207.001953	72494.65625	5474.791992	10554.28613	771744.4375	2336.511006
2204.640625	72352.92188	5465.79248	10414.63672	771860.5	2333.016963
2202.279297	72535.17188	5381.640625	10585.21289	769199.9375	2331.609519
2199.916016	72328.94531	5454.15625	10601.19043	767891.0625	2353.741462
2197.552734	72538.58594	5466.327148	10679.57422	767476.8125	2357.160502
2195.189453	72774.53906	5532.429199	10584.46387	765273.25	2358.436695
2192.824219	72769.28125	5361.652832	10596.19434	761856.0625	2366.556628
2190.458984	72558.96094	5591.582031	10630.11426	761841.0625	2375.239248
2188.09375	72363.54688	5443.077148	10651.33203	759708.375	2370.964942
2185.726563	72530.57031	5493.260254	10506.68555	758354.3125	2372.210726
2183.359375	72855.89844	5453.646484	10633.53125	759231.375	2386.878429
2180.992188	72372.32031	5538.636719	10641.00098	755937.625	2386.510038
2178.623047	72682.71875	5510.641602	10602.02539	753706.375	2386.735799
2176.253906	72805.10156	5504.820313	10631.65527	751993.375	2396.310731
2173.884766	72502.3125	5554.90918	10635.95117	749718	2400.210335
2171.513672	72444.33594	5556.458984	10763.62305	747746.4375	2401.349932
2169.142578	72483.375	5503.186035	10627.66211	746152.375	2414.506912
2166.769531	72793.24219	5540.58252	10751.04395	747680.8125	2413.059775
2164.396484	72165.20313	5505.255859	10763.72363	742558.875	2408.819517
2162.023438	72175.82031	5554.215332	10711.08887	743123.5625	2419.708057
2159.650391	72272.77344	5554.706543	10795.37402	739741.125	2421.339777
2157.275391	72361.24219	5560.460449	10729.07324	739669.125	2429.591116
2154.898438	72224.42969	5616.726074	10703.85254	736592.5625	2425.102357
2152.523438	72067.70313	5555.12207	10744.92676	736636.125	2431.771682
2150.146484	72126.67188	5608.199707	10601.91406	733486.3125	2426.878364
2147.767578	72070.99219	5626.546387	10743.93262	731257.1875	2438.034991
2145.390625	71943.85156	5580.759277	10704.01563	728291.4375	2437.855701
2143.011719	71508.875	5643.23877	10816.49512	729478.125	2435.917397
2140.630859	71712.875	5570.157227	10798.63867	726903.125	2434.139767
2138.25	71460.94531	5606.345215	10746.13281	724354.6875	2440.799652
2135.869141	71524.13281	5552.214355	10737.75488	722912.1875	2433.24668
2133.488281	71262.9375	5617.775879	10772.41406	721475.6875	2438.184921
2131.105469	71147.74219	5650.768555	10718.90918	719927.6875	2440.837411
2128.722656	70836.4375	5563.100586	10828.03223	718288.125	2432.552273
2126.337891	70835.72656	5641.184082	10728.39551	714758.625	2440.085697
2123.953125	70927.26563	5705.591797	10714.78516	713904.5625	2433.191171
2121.568359	70702.21875	5632.65625	10878.31152	711714.5	2422.363155
2119.183594	70345.26563	5644.63623	10794.45996	711136.1875	2433.095105
2116.796875	70216.86719	5570.711914	10805.97852	708645.3125	2435.509335
2114.408203	70244.5625	5642.392578	10937.91602	707063.75	2429.104033
2112.021484	69866.04688	5627.137695	10846.78809	706312.125	2427.869269
2109.632813	69574.60156	5688.29248	10799.66797	704790.5625	2421.452298
2107.242188	69813.78125	5625.948242	10940.9043	704225.0625	2425.550254
2104.851563	69461.84375	5688.112305	10837.29883	701451.75	2430.63927
2102.460938	69430.07813	5697.955566	10917.79004	700231.75	2421.43797
2100.070313	68889.22656	5648.205078	10867.5625	698073.625	2415.753466
2097.677734	69244.28906	5629.834961	10852.89453	694587.375	2422.279608
2095.285156	68724.6875	5632.370605	10782.86328	693966.6875	2411.287913
2092.890625	68385.02344	5664.149414	10777.62598	692863.75	2414.337308
2090.496094	68395.33594	5635.347168	10751.50781	689041.4375	2407.497946
2088.101563	68332.5625	5622.21875	10818.30469	691761.875	2410.042219
2085.707031	68430.51563	5749.977051	10736.87988	688778.8125	2405.624697
2083.310547	68340.63281	5683.615723	10959.0791	688100.8125	2398.622422
2080.912109	68323.78906	5642.323242	10845.32813	687483.625	2399.253139
2078.515625	67880.52344	5712.616699	10825.47656	685247.5625	2390.0136
2076.117188	67576.13281	5769.317383	10848.37012	684039.3125	2379.151074
2073.716797	67599.10156	5739.496094	10897.29883	682882.8125	2383.03105
2071.316406	67262.65625	5744.068359	10718.06543	679487.1875	2389.961559
2068.916016	67213.82813	5734.057129	10815.94629	681407.75	2375.401758
2066.515625	66735.04688	5710.516602	10903.35742	676448.5625	2378.20217
2064.113281	66556.28125	5677.62207	10698.25586	676332.9375	2368.868128
2061.710938	66653.34375	5724.864746	10806.45703	675919.625	2360.013614
2059.306641	66559.99219	5652.455566	10818.89746	675207	2350.847592
2056.902344	66299.25781	5841.102539	10776.21582	671003.75	2346.335557
2054.498047	66201.88281	5712.5625	10834.39648	670014.1875	2348.083935
2052.091797	65830.1875	5761.81543	10831.22461	668188.4375	2341.384506
2049.685547	66152.73438	5841.168945	10771.94922	668193.3125	2334.330896
2047.279297	65551.71094	5909.049805	10608.84082	666182.0625	2325.881504
2044.871094	65172.20313	5816.980469	10661.80469	664685.875	2317.119472
